70BCSV 	
// AQ6370D OPTICAL SPECTRUM ANALYZER //                 
30
"CTRWL",1569.500000
"SPAN",  40.000000
"START WL",1549.500000
"STOP WL",1589.500000
"WLFREQ", 0
"REFL",-26.2
"LSCL",10.0
"RESLN",0.050
"AVG",   1
"SMPLAUTO",      1
"SMPL",       4001
"SMPLINTVL",0.0100
"NORMAL"
"MEAS"
"LSUNT",0
"NMSKH","OFF"
"RESCOR",0
"SMOOTH",0
"FIBERTYPE",0
"MEASWL",0
"SWPSPD",1
"NEBWCAL0",    0
"NEBWCAL1",    0
"NEBWCALWL",   0
"RESPARM", 9230
"FREQPARM", 9230




"[TRACE DATA]"
1549.5000, -73.635
1549.5100,-210.000
1549.5200, -82.203
1549.5300, -75.325
1549.5400, -72.297
1549.5500, -75.325
1549.5600, -71.848
1549.5700, -73.649
1549.5800, -71.218
1549.5900, -71.689
1549.6000, -80.436
1549.6100, -70.815
1549.6200, -74.362
1549.6300, -72.443
1549.6400, -71.089
1549.6500, -71.887
1549.6600, -73.123
1549.6700, -79.342
1549.6800, -73.737
1549.6900,-210.000
1549.7000, -73.698
1549.7100,-210.000
1549.7200,-210.000
1549.7300, -85.907
1549.7400, -72.381
1549.7500, -74.059
1549.7600,-210.000
1549.7700,-210.000
1549.7800, -74.205
1549.7900, -70.078
1549.8000, -71.689
1549.8100, -73.123
1549.8200, -71.579
1549.8300, -70.628
1549.8400, -73.692
1549.8500, -71.674
1549.8600, -70.769
1549.8700, -70.803
1549.8800, -70.125
1549.8900, -75.038
1549.9000, -69.863
1549.9100, -71.327
1549.9200, -72.856
1549.9300, -73.472
1549.9400, -69.936
1549.9500, -73.509
1549.9600, -69.253
1549.9700, -76.237
1549.9800, -77.631
1549.9900, -73.775
1550.0000,-210.000
1550.0100, -70.443
1550.0200, -70.466
1550.0300,-210.000
1550.0400, -71.118
1550.0500, -75.198
1550.0600, -75.103
1550.0700, -75.324
1550.0800, -78.212
1550.0900, -71.317
1550.1000, -70.553
1550.1100, -72.679
1550.1200, -71.094
1550.1300, -71.847
1550.1400, -71.446
1550.1500, -77.329
1550.1600, -73.736
1550.1700, -71.699
1550.1800,-210.000
1550.1900,-210.000
1550.2000, -73.079
1550.2100, -72.159
1550.2200, -73.648
1550.2300, -72.000
1550.2400, -72.344
1550.2500, -72.409
1550.2600,-210.000
1550.2700, -75.091
1550.2800, -70.125
1550.2900, -83.458
1550.3000, -73.274
1550.3100, -75.779
1550.3200, -75.655
1550.3300, -72.212
1550.3400, -70.085
1550.3500, -69.454
1550.3600, -71.922
1550.3700, -72.965
1550.3800, -70.442
1550.3900, -75.587
1550.4000, -74.783
1550.4100, -81.106
1550.4200, -72.240
1550.4300, -72.678
1550.4400, -72.437
1550.4500,-210.000
1550.4600, -71.461
1550.4700, -73.002
1550.4800, -78.669
1550.4900,-210.000
1550.5000, -77.510
1550.5100, -72.609
1550.5200, -76.826
1550.5300, -77.216
1550.5400,-210.000
1550.5500, -71.498
1550.5600, -71.066
1550.5700, -70.124
1550.5800, -71.130
1550.5900, -73.962
1550.6000, -76.888
1550.6100, -71.498
1550.6200, -75.795
1550.6300, -68.270
1550.6400, -83.253
1550.6500, -76.671
1550.6600, -72.507
1550.6700, -72.704
1550.6800,-210.000
1550.6900,-210.000
1550.7000,-210.000
1550.7100, -72.859
1550.7200, -71.578
1550.7300, -71.069
1550.7400, -69.001
1550.7500, -68.977
1550.7600, -76.100
1550.7700, -71.266
1550.7800, -72.643
1550.7900, -68.831
1550.8000, -69.256
1550.8100, -72.093
1550.8200, -79.047
1550.8300, -77.117
1550.8400, -72.669
1550.8500, -75.387
1550.8600, -69.897
1550.8700, -71.507
1550.8800, -71.798
1550.8900, -69.847
1550.9000, -73.734
1550.9100, -69.439
1550.9200, -72.890
1550.9300, -71.721
1550.9400, -70.903
1550.9500, -69.127
1550.9600, -71.234
1550.9700, -68.731
1550.9800, -72.211
1550.9900, -76.089
1551.0000, -72.378
1551.0100, -68.216
1551.0200, -71.577
1551.0300, -69.616
1551.0400, -69.096
1551.0500, -70.840
1551.0600, -68.526
1551.0700, -71.895
1551.0800, -71.253
1551.0900, -69.473
1551.1000, -71.325
1551.1100, -69.066
1551.1200, -70.801
1551.1300, -72.247
1551.1400, -70.533
1551.1500, -70.181
1551.1600, -73.154
1551.1700, -71.714
1551.1800, -77.509
1551.1900, -72.184
1551.2000, -68.175
1551.2100, -70.123
1551.2200, -70.700
1551.2300, -70.703
1551.2400,-210.000
1551.2500, -69.691
1551.2600, -71.190
1551.2700, -69.571
1551.2800, -70.527
1551.2900, -68.698
1551.3000, -69.267
1551.3100, -79.047
1551.3200, -69.148
1551.3300, -70.119
1551.3400, -69.025
1551.3500, -69.477
1551.3600, -73.618
1551.3700, -68.445
1551.3800, -68.506
1551.3900, -67.494
1551.4000, -70.588
1551.4100, -70.699
1551.4200, -69.310
1551.4300, -70.463
1551.4400, -69.112
1551.4500, -70.788
1551.4600, -72.406
1551.4700, -74.448
1551.4800, -68.511
1551.4900, -68.721
1551.5000, -68.153
1551.5100, -69.752
1551.5200, -69.561
1551.5300, -68.588
1551.5400, -69.823
1551.5500, -66.915
1551.5600, -67.624
1551.5700, -69.612
1551.5800, -68.883
1551.5900, -67.961
1551.6000, -66.514
1551.6100, -69.915
1551.6200, -66.695
1551.6300, -67.484
1551.6400, -66.306
1551.6500, -67.961
1551.6600, -65.608
1551.6700, -65.554
1551.6800, -65.726
1551.6900, -65.943
1551.7000, -65.747
1551.7100, -65.519
1551.7200, -64.801
1551.7300, -65.149
1551.7400, -64.373
1551.7500, -64.179
1551.7600, -64.257
1551.7700, -64.264
1551.7800, -64.297
1551.7900, -63.934
1551.8000, -63.672
1551.8100, -63.200
1551.8200, -63.832
1551.8300, -63.123
1551.8400, -62.124
1551.8500, -62.259
1551.8600, -61.619
1551.8700, -61.246
1551.8800, -61.287
1551.8900, -61.051
1551.9000, -60.818
1551.9100, -60.905
1551.9200, -60.753
1551.9300, -60.522
1551.9400, -59.914
1551.9500, -59.553
1551.9600, -59.708
1551.9700, -59.520
1551.9800, -59.102
1551.9900, -58.687
1552.0000, -58.695
1552.0100, -58.624
1552.0200, -58.513
1552.0300, -58.331
1552.0400, -58.147
1552.0500, -57.838
1552.0600, -57.771
1552.0700, -57.829
1552.0800, -57.681
1552.0900, -57.497
1552.1000, -57.467
1552.1100, -57.240
1552.1200, -57.347
1552.1300, -57.282
1552.1400, -57.253
1552.1500, -57.179
1552.1600, -57.225
1552.1700, -57.185
1552.1800, -57.387
1552.1900, -57.546
1552.2000, -57.382
1552.2100, -57.330
1552.2200, -57.687
1552.2300, -57.695
1552.2400, -57.768
1552.2500, -57.845
1552.2600, -57.913
1552.2700, -57.880
1552.2800, -58.130
1552.2900, -58.183
1552.3000, -58.255
1552.3100, -58.588
1552.3200, -58.456
1552.3300, -58.883
1552.3400, -59.141
1552.3500, -59.220
1552.3600, -59.337
1552.3700, -59.106
1552.3800, -59.587
1552.3900, -59.797
1552.4000, -60.110
1552.4100, -59.807
1552.4200, -60.023
1552.4300, -60.368
1552.4400, -60.500
1552.4500, -60.942
1552.4600, -60.869
1552.4700, -61.333
1552.4800, -60.552
1552.4900, -61.089
1552.5000, -61.166
1552.5100, -61.873
1552.5200, -61.367
1552.5300, -61.162
1552.5400, -61.515
1552.5500, -61.730
1552.5600, -61.981
1552.5700, -61.938
1552.5800, -61.661
1552.5900, -62.401
1552.6000, -62.083
1552.6100, -62.594
1552.6200, -62.168
1552.6300, -62.702
1552.6400, -62.456
1552.6500, -63.075
1552.6600, -63.131
1552.6700, -62.910
1552.6800, -62.316
1552.6900, -62.991
1552.7000, -63.017
1552.7100, -63.449
1552.7200, -62.487
1552.7300, -62.339
1552.7400, -62.747
1552.7500, -63.299
1552.7600, -63.622
1552.7700, -63.151
1552.7800, -62.938
1552.7900, -62.891
1552.8000, -63.600
1552.8100, -63.515
1552.8200, -63.511
1552.8300, -63.515
1552.8400, -63.825
1552.8500, -63.987
1552.8600, -63.554
1552.8700, -64.126
1552.8800, -64.189
1552.8900, -64.184
1552.9000, -63.871
1552.9100, -64.460
1552.9200, -64.438
1552.9300, -64.130
1552.9400, -63.291
1552.9500, -63.987
1552.9600, -64.007
1552.9700, -63.591
1552.9800, -64.003
1552.9900, -63.630
1553.0000, -63.661
1553.0100, -64.945
1553.0200, -63.433
1553.0300, -63.816
1553.0400, -64.058
1553.0500, -63.913
1553.0600, -64.485
1553.0700, -64.980
1553.0800, -64.293
1553.0900, -65.294
1553.1000, -64.975
1553.1100, -63.865
1553.1200, -64.166
1553.1300, -63.430
1553.1400, -64.533
1553.1500, -64.442
1553.1600, -64.323
1553.1700, -64.235
1553.1800, -64.593
1553.1900, -64.489
1553.2000, -64.548
1553.2100, -64.145
1553.2200, -65.059
1553.2300, -64.086
1553.2400, -64.924
1553.2500, -64.893
1553.2600, -64.423
1553.2700, -65.294
1553.2800, -64.170
1553.2900, -65.017
1553.3000, -65.032
1553.3100, -64.139
1553.3200, -64.510
1553.3300, -64.257
1553.3400, -64.489
1553.3500, -64.745
1553.3600, -64.344
1553.3700, -65.203
1553.3800, -65.071
1553.3900, -64.479
1553.4000, -65.352
1553.4100, -65.562
1553.4200, -64.024
1553.4300, -66.202
1553.4400, -65.084
1553.4500, -66.444
1553.4600, -64.837
1553.4700, -64.611
1553.4800, -65.508
1553.4900, -64.832
1553.5000, -65.235
1553.5100, -63.966
1553.5200, -65.508
1553.5300, -65.175
1553.5400, -64.504
1553.5500, -63.985
1553.5600, -64.349
1553.5700, -64.257
1553.5800, -65.076
1553.5900, -64.722
1553.6000, -64.787
1553.6100, -65.057
1553.6200, -64.196
1553.6300, -64.999
1553.6400, -65.330
1553.6500, -64.333
1553.6600, -64.834
1553.6700, -65.025
1553.6800, -64.879
1553.6900, -64.383
1553.7000, -65.956
1553.7100, -65.329
1553.7200, -65.267
1553.7300, -65.147
1553.7400, -64.596
1553.7500, -65.086
1553.7600, -65.321
1553.7700, -66.007
1553.7800, -64.219
1553.7900, -65.906
1553.8000, -64.832
1553.8100, -65.383
1553.8200, -65.532
1553.8300, -64.302
1553.8400, -63.471
1553.8500, -64.436
1553.8600, -64.345
1553.8700, -66.293
1553.8800, -64.165
1553.8900, -65.219
1553.9000, -64.965
1553.9100, -65.188
1553.9200, -64.655
1553.9300, -64.421
1553.9400, -65.237
1553.9500, -65.047
1553.9600, -65.119
1553.9700, -64.602
1553.9800, -65.938
1553.9900, -66.042
1554.0000, -65.686
1554.0100, -65.409
1554.0200, -64.953
1554.0300, -64.666
1554.0400, -65.524
1554.0500, -65.070
1554.0600, -64.683
1554.0700, -64.479
1554.0800, -65.827
1554.0900, -66.870
1554.1000, -65.922
1554.1100, -64.931
1554.1200, -66.512
1554.1300, -65.962
1554.1400, -64.855
1554.1500, -65.375
1554.1600, -65.305
1554.1700, -65.740
1554.1800, -65.255
1554.1900, -66.754
1554.2000, -65.156
1554.2100, -64.576
1554.2200, -65.964
1554.2300, -65.623
1554.2400, -64.258
1554.2500, -64.399
1554.2600, -63.995
1554.2700, -65.581
1554.2800, -65.080
1554.2900, -65.854
1554.3000, -65.503
1554.3100, -65.151
1554.3200, -64.832
1554.3300, -65.195
1554.3400, -65.959
1554.3500, -66.220
1554.3600, -65.188
1554.3700, -66.125
1554.3800, -64.801
1554.3900, -65.817
1554.4000, -66.098
1554.4100, -68.420
1554.4200, -67.313
1554.4300, -66.878
1554.4400, -66.858
1554.4500, -65.509
1554.4600, -65.760
1554.4700, -66.482
1554.4800, -67.411
1554.4900, -65.990
1554.5000, -66.813
1554.5100, -67.625
1554.5200, -66.804
1554.5300, -65.239
1554.5400, -66.005
1554.5500, -66.035
1554.5600, -66.280
1554.5700, -68.234
1554.5800, -67.019
1554.5900, -65.686
1554.6000, -66.142
1554.6100, -67.130
1554.6200, -66.467
1554.6300, -65.521
1554.6400, -66.582
1554.6500, -66.993
1554.6600, -65.727
1554.6700, -66.517
1554.6800, -66.388
1554.6900, -66.990
1554.7000, -66.874
1554.7100, -66.226
1554.7200, -67.622
1554.7300, -67.071
1554.7400, -66.697
1554.7500, -67.888
1554.7600, -66.554
1554.7700, -66.045
1554.7800, -65.840
1554.7900, -67.344
1554.8000, -66.249
1554.8100, -67.907
1554.8200, -68.347
1554.8300, -66.495
1554.8400, -68.212
1554.8500, -67.556
1554.8600, -71.301
1554.8700, -69.196
1554.8800, -69.149
1554.8900, -69.471
1554.9000, -71.889
1554.9100, -69.015
1554.9200, -67.346
1554.9300, -69.561
1554.9400, -67.577
1554.9500, -68.520
1554.9600, -70.117
1554.9700, -68.514
1554.9800, -68.697
1554.9900, -76.380
1555.0000, -68.081
1555.0100,-210.000
1555.0200, -69.370
1555.0300, -69.743
1555.0400, -71.976
1555.0500, -73.027
1555.0600, -71.289
1555.0700, -70.015
1555.0800, -69.836
1555.0900, -70.334
1555.1000, -73.371
1555.1100, -71.417
1555.1200, -69.949
1555.1300, -70.673
1555.1400, -70.526
1555.1500, -71.915
1555.1600, -69.534
1555.1700, -68.743
1555.1800, -68.992
1555.1900, -69.484
1555.2000, -71.064
1555.2100, -69.510
1555.2200, -67.141
1555.2300, -66.565
1555.2400, -67.731
1555.2500, -67.910
1555.2600, -65.025
1555.2700, -65.313
1555.2800, -65.054
1555.2900, -64.336
1555.3000, -64.284
1555.3100, -62.916
1555.3200, -63.045
1555.3300, -62.748
1555.3400, -61.938
1555.3500, -61.559
1555.3600, -60.728
1555.3700, -60.332
1555.3800, -59.939
1555.3900, -59.326
1555.4000, -58.654
1555.4100, -58.493
1555.4200, -58.184
1555.4300, -57.356
1555.4400, -57.000
1555.4500, -56.430
1555.4600, -55.806
1555.4700, -55.195
1555.4800, -54.784
1555.4900, -54.198
1555.5000, -53.557
1555.5100, -53.257
1555.5200, -52.715
1555.5300, -52.414
1555.5400, -51.739
1555.5500, -51.326
1555.5600, -50.818
1555.5700, -50.310
1555.5800, -49.940
1555.5900, -49.443
1555.6000, -49.042
1555.6100, -48.718
1555.6200, -48.371
1555.6300, -47.859
1555.6400, -47.413
1555.6500, -47.067
1555.6600, -46.817
1555.6700, -46.583
1555.6800, -46.084
1555.6900, -45.808
1555.7000, -45.637
1555.7100, -45.279
1555.7200, -45.205
1555.7300, -44.911
1555.7400, -44.795
1555.7500, -44.505
1555.7600, -44.451
1555.7700, -44.378
1555.7800, -44.159
1555.7900, -44.101
1555.8000, -44.140
1555.8100, -44.176
1555.8200, -44.028
1555.8300, -44.086
1555.8400, -44.131
1555.8500, -44.237
1555.8600, -44.374
1555.8700, -44.472
1555.8800, -44.566
1555.8900, -44.674
1555.9000, -44.835
1555.9100, -44.890
1555.9200, -45.067
1555.9300, -45.254
1555.9400, -45.459
1555.9500, -45.629
1555.9600, -45.740
1555.9700, -45.940
1555.9800, -46.043
1555.9900, -46.295
1556.0000, -46.541
1556.0100, -46.825
1556.0200, -46.926
1556.0300, -47.042
1556.0400, -47.201
1556.0500, -47.462
1556.0600, -47.575
1556.0700, -47.728
1556.0800, -47.794
1556.0900, -47.874
1556.1000, -48.211
1556.1100, -48.292
1556.1200, -48.371
1556.1300, -48.544
1556.1400, -48.641
1556.1500, -48.665
1556.1600, -48.782
1556.1700, -48.968
1556.1800, -49.036
1556.1900, -49.184
1556.2000, -49.231
1556.2100, -49.292
1556.2200, -49.493
1556.2300, -49.523
1556.2400, -49.611
1556.2500, -49.671
1556.2600, -49.713
1556.2700, -49.938
1556.2800, -49.897
1556.2900, -49.959
1556.3000, -49.901
1556.3100, -49.987
1556.3200, -50.182
1556.3300, -50.219
1556.3400, -50.266
1556.3500, -50.296
1556.3600, -50.225
1556.3700, -50.385
1556.3800, -50.339
1556.3900, -50.481
1556.4000, -50.596
1556.4100, -50.561
1556.4200, -50.500
1556.4300, -50.579
1556.4400, -50.682
1556.4500, -50.748
1556.4600, -50.694
1556.4700, -50.766
1556.4800, -50.725
1556.4900, -50.748
1556.5000, -50.686
1556.5100, -50.785
1556.5200, -50.929
1556.5300, -50.954
1556.5400, -50.965
1556.5500, -50.974
1556.5600, -50.927
1556.5700, -51.028
1556.5800, -51.053
1556.5900, -51.072
1556.6000, -51.077
1556.6100, -51.082
1556.6200, -51.116
1556.6300, -51.177
1556.6400, -51.094
1556.6500, -51.211
1556.6600, -51.119
1556.6700, -51.113
1556.6800, -51.283
1556.6900, -51.137
1556.7000, -51.101
1556.7100, -51.144
1556.7200, -51.412
1556.7300, -51.267
1556.7400, -51.268
1556.7500, -51.165
1556.7600, -51.315
1556.7700, -51.239
1556.7800, -51.184
1556.7900, -51.244
1556.8000, -51.262
1556.8100, -51.335
1556.8200, -51.508
1556.8300, -51.277
1556.8400, -51.276
1556.8500, -51.311
1556.8600, -51.380
1556.8700, -51.307
1556.8800, -51.330
1556.8900, -51.340
1556.9000, -51.407
1556.9100, -51.345
1556.9200, -51.237
1556.9300, -51.246
1556.9400, -51.405
1556.9500, -51.344
1556.9600, -51.304
1556.9700, -51.443
1556.9800, -51.409
1556.9900, -51.431
1557.0000, -51.218
1557.0100, -51.429
1557.0200, -51.385
1557.0300, -51.450
1557.0400, -51.282
1557.0500, -51.336
1557.0600, -51.376
1557.0700, -51.372
1557.0800, -51.217
1557.0900, -51.401
1557.1000, -51.435
1557.1100, -51.328
1557.1200, -51.244
1557.1300, -51.371
1557.1400, -51.258
1557.1500, -51.194
1557.1600, -51.189
1557.1700, -51.238
1557.1800, -51.430
1557.1900, -51.305
1557.2000, -51.083
1557.2100, -51.139
1557.2200, -51.276
1557.2300, -51.256
1557.2400, -51.287
1557.2500, -51.308
1557.2600, -51.176
1557.2700, -51.233
1557.2800, -51.236
1557.2900, -51.172
1557.3000, -51.329
1557.3100, -51.279
1557.3200, -51.212
1557.3300, -51.012
1557.3400, -51.127
1557.3500, -51.185
1557.3600, -51.060
1557.3700, -51.194
1557.3800, -51.160
1557.3900, -51.249
1557.4000, -51.001
1557.4100, -51.101
1557.4200, -51.192
1557.4300, -50.990
1557.4400, -50.913
1557.4500, -51.046
1557.4600, -51.165
1557.4700, -51.031
1557.4800, -51.001
1557.4900, -51.034
1557.5000, -51.092
1557.5100, -50.988
1557.5200, -50.917
1557.5300, -50.984
1557.5400, -51.103
1557.5500, -50.967
1557.5600, -50.811
1557.5700, -50.813
1557.5800, -50.943
1557.5900, -51.148
1557.6000, -50.992
1557.6100, -50.798
1557.6200, -50.697
1557.6300, -50.821
1557.6400, -51.062
1557.6500, -50.867
1557.6600, -50.798
1557.6700, -50.742
1557.6800, -50.878
1557.6900, -50.854
1557.7000, -50.764
1557.7100, -50.802
1557.7200, -50.687
1557.7300, -50.782
1557.7400, -50.799
1557.7500, -50.857
1557.7600, -50.824
1557.7700, -50.646
1557.7800, -50.664
1557.7900, -50.664
1557.8000, -50.819
1557.8100, -50.638
1557.8200, -50.436
1557.8300, -50.610
1557.8400, -50.602
1557.8500, -50.656
1557.8600, -50.615
1557.8700, -50.521
1557.8800, -50.496
1557.8900, -50.629
1557.9000, -50.696
1557.9100, -50.543
1557.9200, -50.476
1557.9300, -50.433
1557.9400, -50.502
1557.9500, -50.550
1557.9600, -50.449
1557.9700, -50.310
1557.9800, -50.446
1557.9900, -50.476
1558.0000, -50.316
1558.0100, -50.368
1558.0200, -50.460
1558.0300, -50.536
1558.0400, -50.261
1558.0500, -50.241
1558.0600, -50.423
1558.0700, -50.301
1558.0800, -50.247
1558.0900, -50.336
1558.1000, -50.265
1558.1100, -50.190
1558.1200, -50.148
1558.1300, -50.303
1558.1400, -50.312
1558.1500, -50.202
1558.1600, -50.110
1558.1700, -50.151
1558.1800, -50.244
1558.1900, -50.129
1558.2000, -50.067
1558.2100, -50.097
1558.2200, -50.137
1558.2300, -50.102
1558.2400, -49.955
1558.2500, -50.004
1558.2600, -49.990
1558.2700, -50.166
1558.2800, -50.112
1558.2900, -50.023
1558.3000, -50.074
1558.3100, -50.001
1558.3200, -49.823
1558.3300, -49.943
1558.3400, -50.011
1558.3500, -50.039
1558.3600, -49.844
1558.3700, -49.825
1558.3800, -49.895
1558.3900, -49.872
1558.4000, -49.929
1558.4100, -49.787
1558.4200, -49.836
1558.4300, -49.827
1558.4400, -49.810
1558.4500, -49.908
1558.4600, -49.759
1558.4700, -49.731
1558.4800, -49.623
1558.4900, -49.755
1558.5000, -49.822
1558.5100, -49.773
1558.5200, -49.675
1558.5300, -49.660
1558.5400, -49.693
1558.5500, -49.500
1558.5600, -49.663
1558.5700, -49.660
1558.5800, -49.750
1558.5900, -49.698
1558.6000, -49.657
1558.6100, -49.554
1558.6200, -49.549
1558.6300, -49.537
1558.6400, -49.715
1558.6500, -49.488
1558.6600, -49.449
1558.6700, -49.445
1558.6800, -49.585
1558.6900, -49.457
1558.7000, -49.301
1558.7100, -49.318
1558.7200, -49.453
1558.7300, -49.584
1558.7400, -49.440
1558.7500, -49.290
1558.7600, -49.349
1558.7700, -49.444
1558.7800, -49.380
1558.7900, -49.373
1558.8000, -49.444
1558.8100, -49.281
1558.8200, -49.298
1558.8300, -49.269
1558.8400, -49.224
1558.8500, -49.337
1558.8600, -49.299
1558.8700, -49.131
1558.8800, -49.162
1558.8900, -49.254
1558.9000, -49.297
1558.9100, -49.030
1558.9200, -48.987
1558.9300, -49.063
1558.9400, -49.233
1558.9500, -49.322
1558.9600, -49.160
1558.9700, -49.034
1558.9800, -48.925
1558.9900, -48.984
1559.0000, -49.157
1559.0100, -49.312
1559.0200, -49.068
1559.0300, -48.900
1559.0400, -48.938
1559.0500, -49.073
1559.0600, -49.075
1559.0700, -48.969
1559.0800, -48.892
1559.0900, -48.941
1559.1000, -49.052
1559.1100, -48.982
1559.1200, -49.009
1559.1300, -48.860
1559.1400, -48.974
1559.1500, -48.994
1559.1600, -48.860
1559.1700, -48.884
1559.1800, -48.860
1559.1900, -49.047
1559.2000, -48.851
1559.2100, -48.874
1559.2200, -48.816
1559.2300, -48.868
1559.2400, -48.861
1559.2500, -48.813
1559.2600, -48.763
1559.2700, -48.747
1559.2800, -48.859
1559.2900, -48.781
1559.3000, -48.795
1559.3100, -48.852
1559.3200, -48.731
1559.3300, -48.796
1559.3400, -48.682
1559.3500, -48.649
1559.3600, -48.779
1559.3700, -48.771
1559.3800, -48.827
1559.3900, -48.717
1559.4000, -48.717
1559.4100, -48.897
1559.4200, -48.840
1559.4300, -48.655
1559.4400, -48.575
1559.4500, -48.740
1559.4600, -48.864
1559.4700, -48.871
1559.4800, -48.744
1559.4900, -48.485
1559.5000, -48.690
1559.5100, -48.848
1559.5200, -48.781
1559.5300, -48.648
1559.5400, -48.584
1559.5500, -48.802
1559.5600, -48.696
1559.5700, -48.722
1559.5800, -48.688
1559.5900, -48.555
1559.6000, -48.710
1559.6100, -48.704
1559.6200, -48.759
1559.6300, -48.709
1559.6400, -48.582
1559.6500, -48.613
1559.6600, -48.662
1559.6700, -48.782
1559.6800, -48.882
1559.6900, -48.648
1559.7000, -48.570
1559.7100, -48.643
1559.7200, -49.008
1559.7300, -48.895
1559.7400, -48.722
1559.7500, -48.516
1559.7600, -48.604
